Sample Name, Sample-5
Time, March 20 12:36:52 2013
Operator, Kolloid
Lamp, 0
Slit,0.0
Scan From, 1100.0nm
Scan To, 400.0nm
Scan Step, 1.0nm
Sample Filter, 10
memo, 
WL(nm), Abs, T%
400.0, 0.3701, 42.65
401.0, 0.3674, 42.92
402.0, 0.3654, 43.12
403.0, 0.3621, 43.44
404.0, 0.3590, 43.75
405.0, 0.3560, 44.06
406.0, 0.3534, 44.32
407.0, 0.3506, 44.61
408.0, 0.3473, 44.95
409.0, 0.3452, 45.17
410.0, 0.3421, 45.49
411.0, 0.3395, 45.76
412.0, 0.3369, 46.04
413.0, 0.3343, 46.31
414.0, 0.3318, 46.59
415.0, 0.3288, 46.91
416.0, 0.3274, 47.05
417.0, 0.3245, 47.37
418.0, 0.3218, 47.66
419.0, 0.3200, 47.86
420.0, 0.3184, 48.04
421.0, 0.3161, 48.29
422.0, 0.3142, 48.51
423.0, 0.3120, 48.75
424.0, 0.3106, 48.91
425.0, 0.3087, 49.13
426.0, 0.3066, 49.36
427.0, 0.3051, 49.53
428.0, 0.3038, 49.68
429.0, 0.3026, 49.82
430.0, 0.3011, 49.99
431.0, 0.2996, 50.16
432.0, 0.2983, 50.32
433.0, 0.2971, 50.46
434.0, 0.2955, 50.64
435.0, 0.2945, 50.76
436.0, 0.2938, 50.84
437.0, 0.2927, 50.97
438.0, 0.2918, 51.07
439.0, 0.2917, 51.09
440.0, 0.2905, 51.23
441.0, 0.2903, 51.25
442.0, 0.2892, 51.38
443.0, 0.2883, 51.49
444.0, 0.2880, 51.52
445.0, 0.2882, 51.50
446.0, 0.2868, 51.67
447.0, 0.2866, 51.69
448.0, 0.2867, 51.68
449.0, 0.2862, 51.74
450.0, 0.2863, 51.73
451.0, 0.2862, 51.74
452.0, 0.2859, 51.78
453.0, 0.2850, 51.89
454.0, 0.2853, 51.84
455.0, 0.2857, 51.80
456.0, 0.2856, 51.81
457.0, 0.2856, 51.81
458.0, 0.2858, 51.79
459.0, 0.2854, 51.84
460.0, 0.2861, 51.75
461.0, 0.2859, 51.77
462.0, 0.2863, 51.73
463.0, 0.2866, 51.68
464.0, 0.2865, 51.70
465.0, 0.2880, 51.52
466.0, 0.2875, 51.58
467.0, 0.2872, 51.62
468.0, 0.2871, 51.64
469.0, 0.2872, 51.62
470.0, 0.2893, 51.36
471.0, 0.2891, 51.39
472.0, 0.2889, 51.42
473.0, 0.2896, 51.34
474.0, 0.2898, 51.31
475.0, 0.2901, 51.27
476.0, 0.2909, 51.17
477.0, 0.2912, 51.14
478.0, 0.2919, 51.06
479.0, 0.2918, 51.08
480.0, 0.2925, 50.99
481.0, 0.2924, 51.00
482.0, 0.2931, 50.92
483.0, 0.2937, 50.85
484.0, 0.2945, 50.76
485.0, 0.2948, 50.72
486.0, 0.2955, 50.64
487.0, 0.2954, 50.65
488.0, 0.2967, 50.50
489.0, 0.2968, 50.49
490.0, 0.2974, 50.42
491.0, 0.2981, 50.34
492.0, 0.2988, 50.26
493.0, 0.2992, 50.22
494.0, 0.2997, 50.15
495.0, 0.3000, 50.12
496.0, 0.3008, 50.02
497.0, 0.3009, 50.01
498.0, 0.3019, 49.90
499.0, 0.3022, 49.86
500.0, 0.3035, 49.72
501.0, 0.3036, 49.70
502.0, 0.3042, 49.64
503.0, 0.3041, 49.65
504.0, 0.3052, 49.52
505.0, 0.3054, 49.50
506.0, 0.3064, 49.39
507.0, 0.3072, 49.29
508.0, 0.3073, 49.28
509.0, 0.3083, 49.17
510.0, 0.3096, 49.02
511.0, 0.3097, 49.01
512.0, 0.3107, 48.90
513.0, 0.3114, 48.82
514.0, 0.3120, 48.75
515.0, 0.3128, 48.66
516.0, 0.3134, 48.60
517.0, 0.3146, 48.46
518.0, 0.3149, 48.42
519.0, 0.3158, 48.33
520.0, 0.3166, 48.24
521.0, 0.3170, 48.19
522.0, 0.3181, 48.08
523.0, 0.3191, 47.96
524.0, 0.3198, 47.88
525.0, 0.3206, 47.80
526.0, 0.3217, 47.68
527.0, 0.3222, 47.62
528.0, 0.3233, 47.50
529.0, 0.3245, 47.37
530.0, 0.3258, 47.23
531.0, 0.3266, 47.14
532.0, 0.3277, 47.02
533.0, 0.3289, 46.89
534.0, 0.3295, 46.83
535.0, 0.3311, 46.66
536.0, 0.3320, 46.55
537.0, 0.3328, 46.47
538.0, 0.3343, 46.31
539.0, 0.3354, 46.20
540.0, 0.3367, 46.06
541.0, 0.3380, 45.92
542.0, 0.3393, 45.78
543.0, 0.3403, 45.68
544.0, 0.3420, 45.50
545.0, 0.3417, 45.53
546.0, 0.3430, 45.40
547.0, 0.3450, 45.19
548.0, 0.3472, 44.95
549.0, 0.3486, 44.81
550.0, 0.3498, 44.68
551.0, 0.3515, 44.52
552.0, 0.3530, 44.36
553.0, 0.3546, 44.20
554.0, 0.3561, 44.04
555.0, 0.3577, 43.89
556.0, 0.3590, 43.76
557.0, 0.3606, 43.60
558.0, 0.3617, 43.48
559.0, 0.3638, 43.27
560.0, 0.3654, 43.11
561.0, 0.3667, 42.98
562.0, 0.3685, 42.81
563.0, 0.3703, 42.63
564.0, 0.3722, 42.44
565.0, 0.3735, 42.32
566.0, 0.3749, 42.18
567.0, 0.3771, 41.97
568.0, 0.3788, 41.80
569.0, 0.3805, 41.64
570.0, 0.3825, 41.44
571.0, 0.3842, 41.28
572.0, 0.3862, 41.10
573.0, 0.3874, 40.98
574.0, 0.3891, 40.83
575.0, 0.3913, 40.62
576.0, 0.3935, 40.41
577.0, 0.3950, 40.27
578.0, 0.3974, 40.05
579.0, 0.3987, 39.93
580.0, 0.4006, 39.76
581.0, 0.4025, 39.58
582.0, 0.4050, 39.36
583.0, 0.4068, 39.19
584.0, 0.4088, 39.01
585.0, 0.4108, 38.84
586.0, 0.4118, 38.74
587.0, 0.4142, 38.53
588.0, 0.4161, 38.36
589.0, 0.4173, 38.26
590.0, 0.4200, 38.02
591.0, 0.4223, 37.82
592.0, 0.4240, 37.67
593.0, 0.4256, 37.53
594.0, 0.4277, 37.35
595.0, 0.4299, 37.16
596.0, 0.4316, 37.02
597.0, 0.4333, 36.88
598.0, 0.4357, 36.67
599.0, 0.4371, 36.55
600.0, 0.4398, 36.33
601.0, 0.4413, 36.20
602.0, 0.4433, 36.03
603.0, 0.4449, 35.90
604.0, 0.4473, 35.70
605.0, 0.4495, 35.52
606.0, 0.4504, 35.45
607.0, 0.4529, 35.24
608.0, 0.4542, 35.14
609.0, 0.4565, 34.96
610.0, 0.4586, 34.78
611.0, 0.4600, 34.68
612.0, 0.4617, 34.54
613.0, 0.4635, 34.39
614.0, 0.4653, 34.26
615.0, 0.4673, 34.10
616.0, 0.4697, 33.91
617.0, 0.4706, 33.84
618.0, 0.4721, 33.72
619.0, 0.4746, 33.53
620.0, 0.4759, 33.43
621.0, 0.4777, 33.29
622.0, 0.4794, 33.16
623.0, 0.4818, 32.98
624.0, 0.4829, 32.90
625.0, 0.4853, 32.71
626.0, 0.4861, 32.65
627.0, 0.4875, 32.55
628.0, 0.4901, 32.35
629.0, 0.4907, 32.31
630.0, 0.4932, 32.12
631.0, 0.4946, 32.02
632.0, 0.4963, 31.89
633.0, 0.4977, 31.79
634.0, 0.4987, 31.72
635.0, 0.5009, 31.56
636.0, 0.5012, 31.54
637.0, 0.5029, 31.41
638.0, 0.5049, 31.27
639.0, 0.5064, 31.16
640.0, 0.5073, 31.09
641.0, 0.5086, 31.01
642.0, 0.5105, 30.87
643.0, 0.5121, 30.75
644.0, 0.5130, 30.69
645.0, 0.5142, 30.60
646.0, 0.5158, 30.50
647.0, 0.5174, 30.38
648.0, 0.5181, 30.33
649.0, 0.5199, 30.21
650.0, 0.5213, 30.11
651.0, 0.5222, 30.05
652.0, 0.5237, 29.95
653.0, 0.5249, 29.86
654.0, 0.5257, 29.80
655.0, 0.5272, 29.70
656.0, 0.5284, 29.62
657.0, 0.5289, 29.59
658.0, 0.5301, 29.50
659.0, 0.5321, 29.37
660.0, 0.5325, 29.34
661.0, 0.5343, 29.22
662.0, 0.5359, 29.12
663.0, 0.5368, 29.06
664.0, 0.5372, 29.03
665.0, 0.5379, 28.98
666.0, 0.5392, 28.90
667.0, 0.5399, 28.85
668.0, 0.5409, 28.78
669.0, 0.5423, 28.69
670.0, 0.5432, 28.63
671.0, 0.5436, 28.60
672.0, 0.5452, 28.50
673.0, 0.5459, 28.45
674.0, 0.5466, 28.40
675.0, 0.5475, 28.35
676.0, 0.5477, 28.33
677.0, 0.5505, 28.15
678.0, 0.5509, 28.12
679.0, 0.5509, 28.12
680.0, 0.5526, 28.02
681.0, 0.5535, 27.96
682.0, 0.5542, 27.91
683.0, 0.5548, 27.88
684.0, 0.5555, 27.83
685.0, 0.5569, 27.74
686.0, 0.5568, 27.75
687.0, 0.5581, 27.67
688.0, 0.5587, 27.63
689.0, 0.5598, 27.56
690.0, 0.5605, 27.51
691.0, 0.5618, 27.43
692.0, 0.5617, 27.43
693.0, 0.5623, 27.40
694.0, 0.5641, 27.28
695.0, 0.5646, 27.25
696.0, 0.5654, 27.20
697.0, 0.5648, 27.24
698.0, 0.5664, 27.14
699.0, 0.5664, 27.14
700.0, 0.5670, 27.10
701.0, 0.5687, 26.99
702.0, 0.5686, 27.00
703.0, 0.5691, 26.97
704.0, 0.5704, 26.89
705.0, 0.5712, 26.84
706.0, 0.5719, 26.80
707.0, 0.5722, 26.78
708.0, 0.5735, 26.70
709.0, 0.5748, 26.62
710.0, 0.5745, 26.64
711.0, 0.5747, 26.62
712.0, 0.5751, 26.60
713.0, 0.5756, 26.57
714.0, 0.5764, 26.52
715.0, 0.5764, 26.52
716.0, 0.5774, 26.46
717.0, 0.5773, 26.47
718.0, 0.5780, 26.43
719.0, 0.5782, 26.41
720.0, 0.5790, 26.36
721.0, 0.5791, 26.36
722.0, 0.5799, 26.31
723.0, 0.5804, 26.28
724.0, 0.5804, 26.28
725.0, 0.5809, 26.25
726.0, 0.5810, 26.24
727.0, 0.5816, 26.21
728.0, 0.5824, 26.16
729.0, 0.5826, 26.14
730.0, 0.5828, 26.13
731.0, 0.5829, 26.13
732.0, 0.5830, 26.12
733.0, 0.5833, 26.10
734.0, 0.5833, 26.10
735.0, 0.5836, 26.08
736.0, 0.5841, 26.06
737.0, 0.5837, 26.08
738.0, 0.5841, 26.06
739.0, 0.5840, 26.06
740.0, 0.5843, 26.04
741.0, 0.5843, 26.05
742.0, 0.5841, 26.06
743.0, 0.5842, 26.05
744.0, 0.5843, 26.04
745.0, 0.5843, 26.04
746.0, 0.5838, 26.07
747.0, 0.5842, 26.05
748.0, 0.5839, 26.07
749.0, 0.5838, 26.07
750.0, 0.5838, 26.07
751.0, 0.5842, 26.05
752.0, 0.5838, 26.07
753.0, 0.5838, 26.07
754.0, 0.5832, 26.11
755.0, 0.5819, 26.19
756.0, 0.5822, 26.17
757.0, 0.5822, 26.17
758.0, 0.5821, 26.18
759.0, 0.5819, 26.19
760.0, 0.5812, 26.23
761.0, 0.5805, 26.27
762.0, 0.5804, 26.28
763.0, 0.5801, 26.30
764.0, 0.5803, 26.28
765.0, 0.5786, 26.39
766.0, 0.5784, 26.40
767.0, 0.5782, 26.41
768.0, 0.5775, 26.46
769.0, 0.5768, 26.49
770.0, 0.5760, 26.54
771.0, 0.5752, 26.60
772.0, 0.5749, 26.61
773.0, 0.5740, 26.67
774.0, 0.5732, 26.72
775.0, 0.5728, 26.74
776.0, 0.5723, 26.78
777.0, 0.5707, 26.87
778.0, 0.5706, 26.88
779.0, 0.5688, 26.99
780.0, 0.5682, 27.03
781.0, 0.5679, 27.05
782.0, 0.5664, 27.14
783.0, 0.5654, 27.20
784.0, 0.5651, 27.22
785.0, 0.5644, 27.27
786.0, 0.5632, 27.34
787.0, 0.5624, 27.39
788.0, 0.5615, 27.45
789.0, 0.5598, 27.56
790.0, 0.5583, 27.65
791.0, 0.5578, 27.69
792.0, 0.5568, 27.74
793.0, 0.5554, 27.84
794.0, 0.5547, 27.88
795.0, 0.5541, 27.92
796.0, 0.5527, 28.01
797.0, 0.5513, 28.10
798.0, 0.5489, 28.26
799.0, 0.5483, 28.29
800.0, 0.5475, 28.35
801.0, 0.5460, 28.44
802.0, 0.5452, 28.50
803.0, 0.5437, 28.60
804.0, 0.5425, 28.67
805.0, 0.5413, 28.75
806.0, 0.5400, 28.84
807.0, 0.5389, 28.91
808.0, 0.5373, 29.02
809.0, 0.5364, 29.08
810.0, 0.5348, 29.19
811.0, 0.5333, 29.29
812.0, 0.5318, 29.39
813.0, 0.5312, 29.43
814.0, 0.5298, 29.52
815.0, 0.5281, 29.64
816.0, 0.5265, 29.75
817.0, 0.5259, 29.79
818.0, 0.5241, 29.92
819.0, 0.5225, 30.03
820.0, 0.5210, 30.13
821.0, 0.5193, 30.25
822.0, 0.5180, 30.34
823.0, 0.5164, 30.45
824.0, 0.5156, 30.51
825.0, 0.5137, 30.64
826.0, 0.5127, 30.71
827.0, 0.5111, 30.83
828.0, 0.5102, 30.89
829.0, 0.5081, 31.04
830.0, 0.5072, 31.10
831.0, 0.5053, 31.24
832.0, 0.5041, 31.33
833.0, 0.5030, 31.41
834.0, 0.5014, 31.52
835.0, 0.5005, 31.59
836.0, 0.4991, 31.69
837.0, 0.4979, 31.78
838.0, 0.4969, 31.85
839.0, 0.4952, 31.97
840.0, 0.4934, 32.10
841.0, 0.4923, 32.19
842.0, 0.4913, 32.26
843.0, 0.4897, 32.38
844.0, 0.4883, 32.48
845.0, 0.4870, 32.59
846.0, 0.4858, 32.67
847.0, 0.4844, 32.78
848.0, 0.4832, 32.87
849.0, 0.4824, 32.93
850.0, 0.4813, 33.02
851.0, 0.4788, 33.20
852.0, 0.4777, 33.29
853.0, 0.4768, 33.36
854.0, 0.4753, 33.47
855.0, 0.4741, 33.57
856.0, 0.4730, 33.65
857.0, 0.4719, 33.74
858.0, 0.4704, 33.85
859.0, 0.4691, 33.95
860.0, 0.4682, 34.02
861.0, 0.4677, 34.06
862.0, 0.4660, 34.20
863.0, 0.4650, 34.28
864.0, 0.4639, 34.36
865.0, 0.4626, 34.47
866.0, 0.4620, 34.51
867.0, 0.4609, 34.60
868.0, 0.4601, 34.67
869.0, 0.4585, 34.80
870.0, 0.4577, 34.86
871.0, 0.4560, 35.00
872.0, 0.4556, 35.03
873.0, 0.4550, 35.08
874.0, 0.4540, 35.15
875.0, 0.4533, 35.22
876.0, 0.4511, 35.40
877.0, 0.4502, 35.46
878.0, 0.4499, 35.49
879.0, 0.4487, 35.59
880.0, 0.4476, 35.67
881.0, 0.4475, 35.69
882.0, 0.4451, 35.88
883.0, 0.4449, 35.90
884.0, 0.4446, 35.93
885.0, 0.4427, 36.08
886.0, 0.4427, 36.09
887.0, 0.4416, 36.17
888.0, 0.4405, 36.26
889.0, 0.4394, 36.36
890.0, 0.4393, 36.36
891.0, 0.4374, 36.52
892.0, 0.4372, 36.54
893.0, 0.4370, 36.56
894.0, 0.4354, 36.69
895.0, 0.4347, 36.75
896.0, 0.4343, 36.79
897.0, 0.4341, 36.81
898.0, 0.4326, 36.93
899.0, 0.4316, 37.02
900.0, 0.4308, 37.08
901.0, 0.4310, 37.07
902.0, 0.4299, 37.16
903.0, 0.4288, 37.26
904.0, 0.4284, 37.29
905.0, 0.4279, 37.34
906.0, 0.4262, 37.48
907.0, 0.4256, 37.53
908.0, 0.4258, 37.52
909.0, 0.4245, 37.63
910.0, 0.4240, 37.67
911.0, 0.4236, 37.71
912.0, 0.4228, 37.77
913.0, 0.4221, 37.83
914.0, 0.4215, 37.88
915.0, 0.4199, 38.02
916.0, 0.4197, 38.04
917.0, 0.4182, 38.17
918.0, 0.4191, 38.09
919.0, 0.4183, 38.17
920.0, 0.4170, 38.28
921.0, 0.4166, 38.32
922.0, 0.4159, 38.38
923.0, 0.4150, 38.46
924.0, 0.4142, 38.53
925.0, 0.4144, 38.51
926.0, 0.4129, 38.65
927.0, 0.4122, 38.71
928.0, 0.4122, 38.71
929.0, 0.4117, 38.75
930.0, 0.4113, 38.79
931.0, 0.4102, 38.88
932.0, 0.4096, 38.94
933.0, 0.4093, 38.97
934.0, 0.4086, 39.03
935.0, 0.4074, 39.14
936.0, 0.4069, 39.18
937.0, 0.4063, 39.24
938.0, 0.4058, 39.28
939.0, 0.4049, 39.36
940.0, 0.4048, 39.38
941.0, 0.4035, 39.49
942.0, 0.4031, 39.52
943.0, 0.4028, 39.55
944.0, 0.4020, 39.63
945.0, 0.4014, 39.68
946.0, 0.4010, 39.72
947.0, 0.3999, 39.82
948.0, 0.3990, 39.90
949.0, 0.3987, 39.93
950.0, 0.3984, 39.95
951.0, 0.3976, 40.04
952.0, 0.3967, 40.11
953.0, 0.3958, 40.20
954.0, 0.3960, 40.18
955.0, 0.3949, 40.28
956.0, 0.3929, 40.46
957.0, 0.3936, 40.40
958.0, 0.3932, 40.44
959.0, 0.3919, 40.56
960.0, 0.3913, 40.62
961.0, 0.3914, 40.61
962.0, 0.3906, 40.68
963.0, 0.3903, 40.71
964.0, 0.3892, 40.81
965.0, 0.3886, 40.87
966.0, 0.3882, 40.91
967.0, 0.3878, 40.95
968.0, 0.3870, 41.02
969.0, 0.3868, 41.04
970.0, 0.3864, 41.08
971.0, 0.3860, 41.12
972.0, 0.3862, 41.09
973.0, 0.3851, 41.20
974.0, 0.3849, 41.22
975.0, 0.3847, 41.24
976.0, 0.3845, 41.26
977.0, 0.3827, 41.43
978.0, 0.3821, 41.48
979.0, 0.3820, 41.49
980.0, 0.3816, 41.54
981.0, 0.3812, 41.57
982.0, 0.3812, 41.57
983.0, 0.3799, 41.70
984.0, 0.3798, 41.71
985.0, 0.3804, 41.65
986.0, 0.3794, 41.75
987.0, 0.3787, 41.81
988.0, 0.3782, 41.86
989.0, 0.3782, 41.86
990.0, 0.3777, 41.91
991.0, 0.3778, 41.90
992.0, 0.3775, 41.93
993.0, 0.3756, 42.11
994.0, 0.3749, 42.18
995.0, 0.3746, 42.21
996.0, 0.3746, 42.21
997.0, 0.3740, 42.27
998.0, 0.3739, 42.28
999.0, 0.3737, 42.30
1000.0, 0.3730, 42.36
1001.0, 0.3725, 42.41
1002.0, 0.3724, 42.42
1003.0, 0.3711, 42.55
1004.0, 0.3705, 42.61
1005.0, 0.3704, 42.61
1006.0, 0.3706, 42.60
1007.0, 0.3694, 42.72
1008.0, 0.3686, 42.80
1009.0, 0.3686, 42.79
1010.0, 0.3684, 42.82
1011.0, 0.3678, 42.88
1012.0, 0.3678, 42.88
1013.0, 0.3665, 43.00
1014.0, 0.3660, 43.06
1015.0, 0.3652, 43.13
1016.0, 0.3647, 43.18
1017.0, 0.3649, 43.16
1018.0, 0.3635, 43.30
1019.0, 0.3641, 43.24
1020.0, 0.3635, 43.30
1021.0, 0.3638, 43.27
1022.0, 0.3627, 43.38
1023.0, 0.3610, 43.55
1024.0, 0.3605, 43.60
1025.0, 0.3601, 43.64
1026.0, 0.3600, 43.65
1027.0, 0.3603, 43.62
1028.0, 0.3601, 43.64
1029.0, 0.3587, 43.78
1030.0, 0.3584, 43.81
1031.0, 0.3593, 43.72
1032.0, 0.3590, 43.75
1033.0, 0.3567, 43.98
1034.0, 0.3565, 44.00
1035.0, 0.3567, 43.99
1036.0, 0.3561, 44.04
1037.0, 0.3554, 44.11
1038.0, 0.3544, 44.22
1039.0, 0.3545, 44.21
1040.0, 0.3539, 44.27
1041.0, 0.3538, 44.28
1042.0, 0.3531, 44.35
1043.0, 0.3517, 44.49
1044.0, 0.3518, 44.49
1045.0, 0.3517, 44.50
1046.0, 0.3522, 44.44
1047.0, 0.3502, 44.65
1048.0, 0.3486, 44.81
1049.0, 0.3488, 44.79
1050.0, 0.3497, 44.70
1051.0, 0.3486, 44.81
1052.0, 0.3484, 44.83
1053.0, 0.3465, 45.03
1054.0, 0.3470, 44.97
1055.0, 0.3468, 45.00
1056.0, 0.3477, 44.91
1057.0, 0.3476, 44.92
1058.0, 0.3459, 45.09
1059.0, 0.3435, 45.34
1060.0, 0.3436, 45.33
1061.0, 0.3430, 45.39
1062.0, 0.3442, 45.27
1063.0, 0.3417, 45.53
1064.0, 0.3416, 45.54
1065.0, 0.3425, 45.44
1066.0, 0.3411, 45.60
1067.0, 0.3406, 45.65
1068.0, 0.3410, 45.60
1069.0, 0.3405, 45.66
1070.0, 0.3390, 45.81
1071.0, 0.3396, 45.75
1072.0, 0.3385, 45.86
1073.0, 0.3391, 45.80
1074.0, 0.3382, 45.90
1075.0, 0.3358, 46.16
1076.0, 0.3361, 46.12
1077.0, 0.3373, 45.99
1078.0, 0.3360, 46.13
1079.0, 0.3332, 46.43
1080.0, 0.3333, 46.42
1081.0, 0.3348, 46.26
1082.0, 0.3334, 46.40
1083.0, 0.3329, 46.47
1084.0, 0.3312, 46.64
1085.0, 0.3328, 46.47
1086.0, 0.3324, 46.52
1087.0, 0.3322, 46.54
1088.0, 0.3319, 46.57
1089.0, 0.3298, 46.80
1090.0, 0.3309, 46.68
1091.0, 0.3295, 46.83
1092.0, 0.3296, 46.81
1093.0, 0.3298, 46.80
1094.0, 0.3278, 47.01
1095.0, 0.3303, 46.74
1096.0, 0.3280, 46.99
1097.0, 0.3268, 47.12
1098.0, 0.3283, 46.96
1099.0, 0.3293, 46.85
1100.0, 0.3293, 46.85
