Sample Name, Sample-9
Time, February 03 21:14:40 2013
Operator, Kolloid
Lamp, 0
Slit,0.0
Scan From, 1100.0nm
Scan To, 400.0nm
Scan Step, 1.0nm
Sample Filter, 10
memo, 
WL(nm), Abs, T%
400.0, 0.6120, 24.43
401.0, 0.6072, 24.70
402.0, 0.6022, 24.99
403.0, 0.5983, 25.22
404.0, 0.5938, 25.48
405.0, 0.5913, 25.63
406.0, 0.5872, 25.87
407.0, 0.5831, 26.12
408.0, 0.5790, 26.36
409.0, 0.5771, 26.48
410.0, 0.5733, 26.71
411.0, 0.5702, 26.91
412.0, 0.5668, 27.12
413.0, 0.5648, 27.24
414.0, 0.5620, 27.41
415.0, 0.5590, 27.61
416.0, 0.5565, 27.77
417.0, 0.5547, 27.88
418.0, 0.5520, 28.06
419.0, 0.5496, 28.21
420.0, 0.5474, 28.35
421.0, 0.5462, 28.43
422.0, 0.5444, 28.55
423.0, 0.5428, 28.66
424.0, 0.5409, 28.78
425.0, 0.5394, 28.88
426.0, 0.5381, 28.97
427.0, 0.5365, 29.07
428.0, 0.5357, 29.13
429.0, 0.5348, 29.19
430.0, 0.5339, 29.25
431.0, 0.5330, 29.31
432.0, 0.5321, 29.37
433.0, 0.5321, 29.37
434.0, 0.5308, 29.46
435.0, 0.5307, 29.47
436.0, 0.5299, 29.52
437.0, 0.5299, 29.52
438.0, 0.5300, 29.52
439.0, 0.5301, 29.50
440.0, 0.5295, 29.54
441.0, 0.5303, 29.49
442.0, 0.5311, 29.44
443.0, 0.5300, 29.51
444.0, 0.5304, 29.49
445.0, 0.5315, 29.41
446.0, 0.5318, 29.39
447.0, 0.5315, 29.41
448.0, 0.5329, 29.32
449.0, 0.5340, 29.24
450.0, 0.5351, 29.17
451.0, 0.5354, 29.15
452.0, 0.5355, 29.14
453.0, 0.5372, 29.03
454.0, 0.5383, 28.95
455.0, 0.5389, 28.91
456.0, 0.5398, 28.85
457.0, 0.5415, 28.74
458.0, 0.5424, 28.68
459.0, 0.5435, 28.61
460.0, 0.5441, 28.57
461.0, 0.5462, 28.43
462.0, 0.5467, 28.40
463.0, 0.5482, 28.30
464.0, 0.5490, 28.25
465.0, 0.5495, 28.21
466.0, 0.5528, 28.00
467.0, 0.5534, 27.97
468.0, 0.5551, 27.86
469.0, 0.5568, 27.74
470.0, 0.5574, 27.71
471.0, 0.5599, 27.55
472.0, 0.5615, 27.45
473.0, 0.5625, 27.39
474.0, 0.5629, 27.36
475.0, 0.5652, 27.21
476.0, 0.5674, 27.08
477.0, 0.5682, 27.03
478.0, 0.5697, 26.93
479.0, 0.5717, 26.81
480.0, 0.5727, 26.75
481.0, 0.5747, 26.62
482.0, 0.5760, 26.55
483.0, 0.5788, 26.38
484.0, 0.5798, 26.31
485.0, 0.5811, 26.24
486.0, 0.5834, 26.10
487.0, 0.5848, 26.01
488.0, 0.5863, 25.93
489.0, 0.5884, 25.80
490.0, 0.5907, 25.67
491.0, 0.5920, 25.59
492.0, 0.5941, 25.47
493.0, 0.5954, 25.39
494.0, 0.5975, 25.26
495.0, 0.5994, 25.16
496.0, 0.6019, 25.01
497.0, 0.6039, 24.90
498.0, 0.6048, 24.84
499.0, 0.6072, 24.70
500.0, 0.6098, 24.56
501.0, 0.6111, 24.49
502.0, 0.6129, 24.38
503.0, 0.6151, 24.26
504.0, 0.6169, 24.16
505.0, 0.6197, 24.00
506.0, 0.6215, 23.90
507.0, 0.6235, 23.80
508.0, 0.6252, 23.70
509.0, 0.6272, 23.59
510.0, 0.6297, 23.46
511.0, 0.6314, 23.36
512.0, 0.6342, 23.22
513.0, 0.6358, 23.13
514.0, 0.6381, 23.01
515.0, 0.6405, 22.88
516.0, 0.6427, 22.77
517.0, 0.6444, 22.68
518.0, 0.6472, 22.53
519.0, 0.6492, 22.43
520.0, 0.6518, 22.30
521.0, 0.6542, 22.17
522.0, 0.6557, 22.10
523.0, 0.6585, 21.95
524.0, 0.6619, 21.78
525.0, 0.6637, 21.69
526.0, 0.6663, 21.56
527.0, 0.6691, 21.42
528.0, 0.6709, 21.34
529.0, 0.6734, 21.21
530.0, 0.6766, 21.06
531.0, 0.6789, 20.95
532.0, 0.6813, 20.83
533.0, 0.6843, 20.69
534.0, 0.6869, 20.56
535.0, 0.6902, 20.41
536.0, 0.6927, 20.29
537.0, 0.6956, 20.15
538.0, 0.6985, 20.02
539.0, 0.7006, 19.93
540.0, 0.7040, 19.77
541.0, 0.7074, 19.62
542.0, 0.7096, 19.52
543.0, 0.7127, 19.38
544.0, 0.7160, 19.23
545.0, 0.7189, 19.10
546.0, 0.7219, 18.97
547.0, 0.7252, 18.83
548.0, 0.7285, 18.69
549.0, 0.7315, 18.56
550.0, 0.7347, 18.42
551.0, 0.7375, 18.30
552.0, 0.7413, 18.14
553.0, 0.7439, 18.04
554.0, 0.7476, 17.88
555.0, 0.7511, 17.74
556.0, 0.7548, 17.59
557.0, 0.7577, 17.47
558.0, 0.7620, 17.30
559.0, 0.7652, 17.17
560.0, 0.7692, 17.01
561.0, 0.7723, 16.89
562.0, 0.7758, 16.76
563.0, 0.7790, 16.64
564.0, 0.7827, 16.49
565.0, 0.7860, 16.37
566.0, 0.7905, 16.20
567.0, 0.7938, 16.08
568.0, 0.7978, 15.93
569.0, 0.8018, 15.78
570.0, 0.8059, 15.63
571.0, 0.8097, 15.50
572.0, 0.8128, 15.39
573.0, 0.8167, 15.25
574.0, 0.8209, 15.11
575.0, 0.8245, 14.98
576.0, 0.8289, 14.83
577.0, 0.8324, 14.71
578.0, 0.8366, 14.57
579.0, 0.8409, 14.43
580.0, 0.8453, 14.28
581.0, 0.8486, 14.17
582.0, 0.8531, 14.02
583.0, 0.8572, 13.89
584.0, 0.8604, 13.79
585.0, 0.8649, 13.65
586.0, 0.8683, 13.54
587.0, 0.8728, 13.40
588.0, 0.8756, 13.32
589.0, 0.8817, 13.13
590.0, 0.8834, 13.08
591.0, 0.8878, 12.95
592.0, 0.8925, 12.81
593.0, 0.8971, 12.67
594.0, 0.9013, 12.55
595.0, 0.9062, 12.41
596.0, 0.9103, 12.30
597.0, 0.9122, 12.24
598.0, 0.9187, 12.06
599.0, 0.9220, 11.97
600.0, 0.9270, 11.83
601.0, 0.9299, 11.75
602.0, 0.9352, 11.61
603.0, 0.9395, 11.50
604.0, 0.9432, 11.40
605.0, 0.9467, 11.31
606.0, 0.9502, 11.21
607.0, 0.9534, 11.13
608.0, 0.9592, 10.98
609.0, 0.9633, 10.88
610.0, 0.9667, 10.80
611.0, 0.9695, 10.73
612.0, 0.9728, 10.65
613.0, 0.9771, 10.54
614.0, 0.9811, 10.44
615.0, 0.9849, 10.35
616.0, 0.9884, 10.27
617.0, 0.9934, 10.15
618.0, 0.9973, 10.06
619.0, 0.9994, 10.01
620.0, 1.0033, 9.92
621.0, 1.0081, 9.82
622.0, 1.0115, 9.74
623.0, 1.0146, 9.67
624.0, 1.0198, 9.56
625.0, 1.0215, 9.52
626.0, 1.0277, 9.38
627.0, 1.0312, 9.31
628.0, 1.0323, 9.28
629.0, 1.0383, 9.15
630.0, 1.0394, 9.13
631.0, 1.0449, 9.02
632.0, 1.0494, 8.93
633.0, 1.0503, 8.91
634.0, 1.0554, 8.80
635.0, 1.0579, 8.75
636.0, 1.0627, 8.66
637.0, 1.0651, 8.61
638.0, 1.0680, 8.55
639.0, 1.0721, 8.47
640.0, 1.0745, 8.42
641.0, 1.0803, 8.31
642.0, 1.0788, 8.34
643.0, 1.0845, 8.23
644.0, 1.0863, 8.20
645.0, 1.0909, 8.11
646.0, 1.0939, 8.06
647.0, 1.0962, 8.01
648.0, 1.0999, 7.95
649.0, 1.1033, 7.88
650.0, 1.1062, 7.83
651.0, 1.1088, 7.78
652.0, 1.1120, 7.73
653.0, 1.1135, 7.70
654.0, 1.1176, 7.63
655.0, 1.1178, 7.62
656.0, 1.1220, 7.55
657.0, 1.1257, 7.49
658.0, 1.1277, 7.45
659.0, 1.1307, 7.40
660.0, 1.1339, 7.35
661.0, 1.1363, 7.31
662.0, 1.1398, 7.25
663.0, 1.1431, 7.19
664.0, 1.1431, 7.19
665.0, 1.1470, 7.13
666.0, 1.1514, 7.06
667.0, 1.1489, 7.10
668.0, 1.1529, 7.03
669.0, 1.1560, 6.98
670.0, 1.1564, 6.98
671.0, 1.1631, 6.87
672.0, 1.1612, 6.90
673.0, 1.1643, 6.85
674.0, 1.1659, 6.83
675.0, 1.1688, 6.78
676.0, 1.1715, 6.74
677.0, 1.1695, 6.77
678.0, 1.1765, 6.66
679.0, 1.1756, 6.67
680.0, 1.1801, 6.61
681.0, 1.1811, 6.59
682.0, 1.1841, 6.54
683.0, 1.1865, 6.51
684.0, 1.1869, 6.50
685.0, 1.1911, 6.44
686.0, 1.1905, 6.45
687.0, 1.1928, 6.42
688.0, 1.1941, 6.40
689.0, 1.1975, 6.35
690.0, 1.1971, 6.35
691.0, 1.1998, 6.31
692.0, 1.2031, 6.26
693.0, 1.2049, 6.24
694.0, 1.2055, 6.23
695.0, 1.2107, 6.16
696.0, 1.2080, 6.19
697.0, 1.2137, 6.11
698.0, 1.2122, 6.14
699.0, 1.2143, 6.11
700.0, 1.2152, 6.09
701.0, 1.2192, 6.04
702.0, 1.2175, 6.06
703.0, 1.2216, 6.00
704.0, 1.2240, 5.97
705.0, 1.2258, 5.95
706.0, 1.2273, 5.93
707.0, 1.2291, 5.90
708.0, 1.2310, 5.87
709.0, 1.2313, 5.87
710.0, 1.2332, 5.84
711.0, 1.2356, 5.81
712.0, 1.2361, 5.81
713.0, 1.2365, 5.80
714.0, 1.2379, 5.78
715.0, 1.2406, 5.75
716.0, 1.2405, 5.75
717.0, 1.2418, 5.73
718.0, 1.2431, 5.71
719.0, 1.2446, 5.69
720.0, 1.2455, 5.68
721.0, 1.2474, 5.66
722.0, 1.2478, 5.65
723.0, 1.2489, 5.64
724.0, 1.2516, 5.60
725.0, 1.2517, 5.60
726.0, 1.2525, 5.59
727.0, 1.2544, 5.57
728.0, 1.2545, 5.57
729.0, 1.2570, 5.53
730.0, 1.2564, 5.54
731.0, 1.2579, 5.52
732.0, 1.2591, 5.51
733.0, 1.2614, 5.48
734.0, 1.2604, 5.49
735.0, 1.2623, 5.47
736.0, 1.2631, 5.46
737.0, 1.2631, 5.46
738.0, 1.2643, 5.44
739.0, 1.2637, 5.45
740.0, 1.2640, 5.44
741.0, 1.2646, 5.44
742.0, 1.2643, 5.44
743.0, 1.2661, 5.42
744.0, 1.2654, 5.43
745.0, 1.2642, 5.44
746.0, 1.2655, 5.43
747.0, 1.2620, 5.47
748.0, 1.2654, 5.43
749.0, 1.2638, 5.45
750.0, 1.2635, 5.45
751.0, 1.2637, 5.45
752.0, 1.2625, 5.46
753.0, 1.2610, 5.48
754.0, 1.2611, 5.48
755.0, 1.2602, 5.49
756.0, 1.2608, 5.48
757.0, 1.2583, 5.52
758.0, 1.2585, 5.51
759.0, 1.2564, 5.54
760.0, 1.2563, 5.54
761.0, 1.2554, 5.55
762.0, 1.2515, 5.60
763.0, 1.2530, 5.58
764.0, 1.2511, 5.61
765.0, 1.2506, 5.62
766.0, 1.2480, 5.65
767.0, 1.2479, 5.65
768.0, 1.2471, 5.66
769.0, 1.2448, 5.69
770.0, 1.2406, 5.75
771.0, 1.2402, 5.75
772.0, 1.2407, 5.75
773.0, 1.2372, 5.79
774.0, 1.2356, 5.81
775.0, 1.2364, 5.80
776.0, 1.2331, 5.85
777.0, 1.2305, 5.88
778.0, 1.2296, 5.89
779.0, 1.2241, 5.97
780.0, 1.2265, 5.94
781.0, 1.2236, 5.98
782.0, 1.2207, 6.02
783.0, 1.2187, 6.04
784.0, 1.2142, 6.11
785.0, 1.2134, 6.12
786.0, 1.2115, 6.14
787.0, 1.2092, 6.18
788.0, 1.2059, 6.22
789.0, 1.2025, 6.27
790.0, 1.2009, 6.30
791.0, 1.1979, 6.34
792.0, 1.1939, 6.40
793.0, 1.1917, 6.43
794.0, 1.1899, 6.46
795.0, 1.1853, 6.53
796.0, 1.1851, 6.53
797.0, 1.1822, 6.57
798.0, 1.1773, 6.65
799.0, 1.1763, 6.66
800.0, 1.1710, 6.75
801.0, 1.1690, 6.78
802.0, 1.1657, 6.83
803.0, 1.1628, 6.87
804.0, 1.1605, 6.91
805.0, 1.1572, 6.96
806.0, 1.1539, 7.02
807.0, 1.1517, 7.05
808.0, 1.1479, 7.11
809.0, 1.1451, 7.16
810.0, 1.1420, 7.21
811.0, 1.1395, 7.25
812.0, 1.1368, 7.30
813.0, 1.1342, 7.34
814.0, 1.1313, 7.39
815.0, 1.1274, 7.46
816.0, 1.1250, 7.50
817.0, 1.1211, 7.57
818.0, 1.1180, 7.62
819.0, 1.1151, 7.67
820.0, 1.1134, 7.70
821.0, 1.1096, 7.77
822.0, 1.1068, 7.82
823.0, 1.1029, 7.89
824.0, 1.1001, 7.94
825.0, 1.0972, 7.99
826.0, 1.0956, 8.02
827.0, 1.0932, 8.07
828.0, 1.0909, 8.11
829.0, 1.0865, 8.19
830.0, 1.0854, 8.21
831.0, 1.0837, 8.25
832.0, 1.0792, 8.33
833.0, 1.0783, 8.35
834.0, 1.0749, 8.42
835.0, 1.0720, 8.47
836.0, 1.0690, 8.53
837.0, 1.0682, 8.55
838.0, 1.0637, 8.64
839.0, 1.0613, 8.68
840.0, 1.0584, 8.74
841.0, 1.0553, 8.80
842.0, 1.0538, 8.83
843.0, 1.0508, 8.90
844.0, 1.0469, 8.98
845.0, 1.0447, 9.02
846.0, 1.0427, 9.06
847.0, 1.0395, 9.13
848.0, 1.0362, 9.20
849.0, 1.0341, 9.25
850.0, 1.0312, 9.31
851.0, 1.0281, 9.37
852.0, 1.0245, 9.45
853.0, 1.0227, 9.49
854.0, 1.0197, 9.56
855.0, 1.0172, 9.61
856.0, 1.0140, 9.68
857.0, 1.0122, 9.72
858.0, 1.0099, 9.77
859.0, 1.0071, 9.84
860.0, 1.0060, 9.86
861.0, 1.0025, 9.94
862.0, 1.0008, 9.98
863.0, 0.9984, 10.04
864.0, 0.9949, 10.12
865.0, 0.9929, 10.16
866.0, 0.9909, 10.21
867.0, 0.9883, 10.27
868.0, 0.9862, 10.32
869.0, 0.9855, 10.34
870.0, 0.9826, 10.41
871.0, 0.9794, 10.49
872.0, 0.9780, 10.52
873.0, 0.9761, 10.57
874.0, 0.9717, 10.67
875.0, 0.9720, 10.67
876.0, 0.9699, 10.72
877.0, 0.9675, 10.78
878.0, 0.9665, 10.80
879.0, 0.9655, 10.83
880.0, 0.9622, 10.91
881.0, 0.9605, 10.95
882.0, 0.9576, 11.03
883.0, 0.9577, 11.02
884.0, 0.9558, 11.07
885.0, 0.9546, 11.10
886.0, 0.9522, 11.16
887.0, 0.9495, 11.23
888.0, 0.9490, 11.25
889.0, 0.9465, 11.31
890.0, 0.9447, 11.36
891.0, 0.9446, 11.36
892.0, 0.9429, 11.41
893.0, 0.9404, 11.47
894.0, 0.9389, 11.51
895.0, 0.9380, 11.53
896.0, 0.9362, 11.58
897.0, 0.9356, 11.60
898.0, 0.9328, 11.67
899.0, 0.9318, 11.70
900.0, 0.9314, 11.71
901.0, 0.9284, 11.79
902.0, 0.9283, 11.79
903.0, 0.9268, 11.84
904.0, 0.9256, 11.87
905.0, 0.9246, 11.89
906.0, 0.9244, 11.90
907.0, 0.9217, 11.98
908.0, 0.9204, 12.01
909.0, 0.9193, 12.04
910.0, 0.9192, 12.05
911.0, 0.9172, 12.10
912.0, 0.9163, 12.13
913.0, 0.9161, 12.13
914.0, 0.9159, 12.14
915.0, 0.9139, 12.19
916.0, 0.9135, 12.20
917.0, 0.9141, 12.19
918.0, 0.9112, 12.27
919.0, 0.9119, 12.25
920.0, 0.9118, 12.25
921.0, 0.9114, 12.26
922.0, 0.9119, 12.25
923.0, 0.9113, 12.27
924.0, 0.9124, 12.24
925.0, 0.9114, 12.26
926.0, 0.9123, 12.24
927.0, 0.9126, 12.23
928.0, 0.9120, 12.25
929.0, 0.9152, 12.16
930.0, 0.9163, 12.12
931.0, 0.9171, 12.10
932.0, 0.9188, 12.05
933.0, 0.9198, 12.03
934.0, 0.9216, 11.98
935.0, 0.9233, 11.93
936.0, 0.9250, 11.88
937.0, 0.9271, 11.83
938.0, 0.9286, 11.79
939.0, 0.9293, 11.77
940.0, 0.9323, 11.69
941.0, 0.9346, 11.63
942.0, 0.9368, 11.57
943.0, 0.9399, 11.48
944.0, 0.9439, 11.38
945.0, 0.9467, 11.30
946.0, 0.9499, 11.22
947.0, 0.9531, 11.14
948.0, 0.9576, 11.03
949.0, 0.9644, 10.85
950.0, 0.9679, 10.77
951.0, 0.9740, 10.62
952.0, 0.9803, 10.46
953.0, 0.9856, 10.34
954.0, 0.9931, 10.16
955.0, 0.9986, 10.03
956.0, 1.0062, 9.86
957.0, 1.0114, 9.74
958.0, 1.0172, 9.61
959.0, 1.0213, 9.52
960.0, 1.0239, 9.47
961.0, 1.0255, 9.43
962.0, 1.0270, 9.40
963.0, 1.0283, 9.37
964.0, 1.0296, 9.34
965.0, 1.0299, 9.33
966.0, 1.0316, 9.30
967.0, 1.0312, 9.31
968.0, 1.0317, 9.30
969.0, 1.0319, 9.29
970.0, 1.0307, 9.32
971.0, 1.0314, 9.30
972.0, 1.0314, 9.30
973.0, 1.0312, 9.31
974.0, 1.0308, 9.32
975.0, 1.0289, 9.36
976.0, 1.0283, 9.37
977.0, 1.0273, 9.39
978.0, 1.0275, 9.39
979.0, 1.0257, 9.43
980.0, 1.0234, 9.48
981.0, 1.0221, 9.50
982.0, 1.0210, 9.53
983.0, 1.0191, 9.57
984.0, 1.0177, 9.60
985.0, 1.0157, 9.64
986.0, 1.0139, 9.69
987.0, 1.0119, 9.73
988.0, 1.0093, 9.79
989.0, 1.0061, 9.86
990.0, 1.0028, 9.94
991.0, 1.0003, 9.99
992.0, 0.9985, 10.03
993.0, 0.9959, 10.09
994.0, 0.9928, 10.17
995.0, 0.9908, 10.21
996.0, 0.9881, 10.28
997.0, 0.9854, 10.34
998.0, 0.9813, 10.44
999.0, 0.9770, 10.54
1000.0, 0.9741, 10.62
1001.0, 0.9709, 10.69
1002.0, 0.9685, 10.75
1003.0, 0.9654, 10.83
1004.0, 0.9624, 10.90
1005.0, 0.9597, 10.97
1006.0, 0.9562, 11.06
1007.0, 0.9524, 11.16
1008.0, 0.9501, 11.22
1009.0, 0.9471, 11.29
1010.0, 0.9453, 11.34
1011.0, 0.9407, 11.46
1012.0, 0.9367, 11.57
1013.0, 0.9349, 11.62
1014.0, 0.9319, 11.70
1015.0, 0.9291, 11.77
1016.0, 0.9254, 11.87
1017.0, 0.9228, 11.95
1018.0, 0.9187, 12.06
1019.0, 0.9136, 12.20
1020.0, 0.9100, 12.30
1021.0, 0.9069, 12.39
1022.0, 0.9044, 12.46
1023.0, 0.9019, 12.53
1024.0, 0.8986, 12.63
1025.0, 0.8941, 12.76
1026.0, 0.8924, 12.81
1027.0, 0.8897, 12.89
1028.0, 0.8865, 12.99
1029.0, 0.8845, 13.05
1030.0, 0.8815, 13.14
1031.0, 0.8780, 13.24
1032.0, 0.8779, 13.25
1033.0, 0.8753, 13.33
1034.0, 0.8709, 13.46
1035.0, 0.8676, 13.56
1036.0, 0.8651, 13.64
1037.0, 0.8632, 13.70
1038.0, 0.8610, 13.77
1039.0, 0.8590, 13.83
1040.0, 0.8572, 13.89
1041.0, 0.8553, 13.95
1042.0, 0.8538, 14.00
1043.0, 0.8498, 14.13
1044.0, 0.8460, 14.26
1045.0, 0.8441, 14.32
1046.0, 0.8408, 14.43
1047.0, 0.8405, 14.44
1048.0, 0.8391, 14.48
1049.0, 0.8381, 14.52
1050.0, 0.8367, 14.57
1051.0, 0.8351, 14.62
1052.0, 0.8348, 14.63
1053.0, 0.8310, 14.76
1054.0, 0.8277, 14.87
1055.0, 0.8258, 14.93
1056.0, 0.8254, 14.95
1057.0, 0.8254, 14.95
1058.0, 0.8232, 15.02
1059.0, 0.8227, 15.04
1060.0, 0.8220, 15.06
1061.0, 0.8379, 14.52
1062.0, 0.8484, 14.18
1063.0, 0.8595, 13.82
1064.0, 0.8170, 15.24
1065.0, 0.8169, 15.25
1066.0, 0.8160, 15.28
1067.0, 0.8113, 15.44
1068.0, 0.8114, 15.44
1069.0, 0.8104, 15.47
1070.0, 0.8113, 15.44
1071.0, 0.8107, 15.46
1072.0, 0.8107, 15.46
1073.0, 0.8114, 15.44
1074.0, 0.8065, 15.61
1075.0, 0.8062, 15.62
1076.0, 0.8073, 15.58
1077.0, 0.8081, 15.56
1078.0, 0.8081, 15.56
1079.0, 0.8088, 15.53
1080.0, 0.8092, 15.52
1081.0, 0.8081, 15.56
1082.0, 0.8063, 15.62
1083.0, 0.8037, 15.71
1084.0, 0.8049, 15.67
1085.0, 0.8043, 15.69
1086.0, 0.8064, 15.62
1087.0, 0.8073, 15.58
1088.0, 0.8091, 15.52
1089.0, 0.8088, 15.53
1090.0, 0.8094, 15.51
1091.0, 0.8112, 15.44
1092.0, 0.8079, 15.56
1093.0, 0.8069, 15.60
1094.0, 0.8065, 15.61
1095.0, 0.8086, 15.54
1096.0, 0.8109, 15.46
1097.0, 0.8135, 15.36
1098.0, 0.8128, 15.39
1099.0, 0.8135, 15.36
1100.0, 0.8161, 15.27
